# LF: Analytic LF (V).
   -7.0000 -8.5508
   -6.0000 -7.8280
   -5.0000 -7.1153
   -4.0000 -6.4180
   -3.0000 -5.7443
   -2.0000 -5.1048
   -1.0000 -4.5133
    0.0000 -3.9843
    1.0000 -3.5306
    2.0000 -3.1588
    3.0000 -2.8669
    4.0000 -2.6451
    5.0000 -2.4795
    6.0000 -2.3556
    7.0000 -2.2609
    8.0000 -2.1857
    9.0000 -2.1234
   10.0000 -2.0694
   11.0000 -2.0205
   12.0000 -1.9750
   13.0000 -1.9316
   14.0000 -1.8894
   15.0000 -1.8496
   16.0000 -1.8496
   17.0000 -1.8496
